History written: Fri Oct 25 15:04:05 2019
produced by benjam23
##### PDFgui fit
stype=N  neutron scattering
qmax=35.00
qdamp=0.0142651
qbroad=0.0240589
dscale=0.951762
fitrmin=0.5
fitrmax=50
# metadata
temperature=15.0
##### start data
#L r(A) G(r) d_r d_Gr Gdiff
0.49 -0.182946 0.0 93.0349 93.0349
0.5 -0.457451 0.0 92.5065 92.5065
0.51 -0.722649 0.0 92.1136 92.1136
0.52 -0.951623 0.0 91.8216 91.8216
0.53 -1.1213 0.0 91.5873 91.5873
0.54 -1.2152 0.0 91.3652 91.3652
0.55 -1.22545 0.0 91.1115 91.1115
0.56 -1.15385 0.0 90.7798 90.7798
0.57 -1.01167 0.0 90.3317 90.3317
0.58 -0.818482 0.0 89.7285 89.7285
0.59 -0.599889 0.0 88.9409 88.9409
0.6 -0.384517 0.0 87.9425 87.9425
0.61 -0.200642 0.0 86.7186 86.7186
0.62 -0.0727969 0.0 85.2578 85.2578
0.63 -0.0188004 0.0 83.5618 83.5618
0.64 -0.0475552 0.0 81.6406 81.6406
0.65 -0.157895 0.0 79.5159 79.5159
0.66 -0.33863 0.0 77.2226 77.2226
0.67 -0.569806 0.0 74.8068 74.8068
0.68 -0.825037 0.0 72.325 72.325
0.69 -1.07464 0.0 69.8446 69.8446
0.7 -1.28922 0.0 67.4352 67.4352
0.71 -1.44324 0.0 65.1712 65.1712
0.72 -1.51823 0.0 63.1222 63.1222
0.73 -1.50509 0.0 61.3461 61.3461
0.74 -1.40538 0.0 59.8884 59.8884
0.75 -1.23126 0.0 58.7723 58.7723
0.76 -1.0042 0.0 57.9992 57.9992
0.77 -0.752457 0.0 57.5435 57.5435
0.78 -0.507802 0.0 57.3528 57.3528
0.79 -0.301647 0.0 57.3556 57.3556
0.8 -0.161232 0.0 57.4592 57.4592
0.81 -0.106227 0.0 57.5622 57.5622
0.82 -0.146205 0.0 57.5602 57.5602
0.83 -0.279301 0.0 57.3593 57.3593
0.84 -0.492243 0.0 56.8792 56.8792
0.85 -0.761767 0.0 56.0658 56.0658
0.86 -1.05728 0.0 54.8963 54.8963
0.87 -1.34447 0.0 53.3825 53.3825
0.88 -1.5894 0.0 51.5694 51.5694
0.89 -1.76266 0.0 49.5337 49.5337
0.9 -1.84307 0.0 47.3771 47.3771
0.91 -1.82037 0.0 45.2154 45.2154
0.92 -1.69671 0.0 43.1677 43.1677
0.93 -1.48661 0.0 41.3446 41.3446
0.94 -1.21542 0.0 39.8364 39.8364
0.95 -0.916449 0.0 38.7054 38.7054
0.96 -0.627069 0.0 37.9741 37.9741
0.97 -0.384207 0.0 37.6272 37.6272
0.98 -0.219854 0.0 37.6099 37.6099
0.99 -0.157055 0.0 37.8311 37.8311
1 -0.206918 0.0 38.1769 38.1769
1.01 -0.367018 0.0 38.52 38.52
1.02 -0.621408 0.0 38.7324 38.7324
1.03 -0.942289 0.0 38.7013 38.7013
1.04 -1.29315 0.0 38.3421 38.3421
1.05 -1.63303 0.0 37.609 37.609
1.06 -1.92146 0.0 36.4985 36.4985
1.07 -2.12334 0.0 35.0563 35.0563
1.08 -2.21341 0.0 33.3714 33.3714
1.09 -2.17952 0.0 31.5685 31.5685
1.1 -2.0244 0.0 29.7954 29.7954
1.11 -1.76566 0.0 28.2107 28.2107
1.12 -1.43398 0.0 26.964 26.964
1.13 -1.06968 0.0 26.1817 26.1817
1.14 -0.717964 0.0 25.952 25.952
1.15 -0.423579 0.0 26.3146 26.3146
1.16 -0.225297 0.0 27.2553 27.2553
1.17 -0.151051 0.0 28.7011 28.7011
1.18 -0.214268 0.0 30.5343 30.5343
1.19 -0.411871 0.0 32.5939 32.5939
1.2 -0.724264 0.0 34.6963 34.6963
1.21 -1.11731 0.0 36.6513 36.6513
1.22 -1.54616 0.0 38.2812 38.2812
1.23 -1.96044 0.0 39.4394 39.4394
1.24 -2.31029 0.0 40.0223 40.0223
1.25 -2.55248 0.0 39.9845 39.9845
1.26 -2.65582 0.0 39.3418 39.3418
1.27 -2.60535 0.0 38.1684 38.1684
1.28 -2.40456 0.0 36.5936 36.5936
1.29 -2.07544 0.0 34.7834 34.7834
1.3 -1.65633 0.0 32.9283 32.9283
1.31 -1.19763 0.0 31.2226 31.2226
1.32 -0.756013 0.0 29.843 29.843
1.33 -0.387595 0.0 28.9306 28.9306
1.34 -0.14111 0.0 28.5781 28.5781
1.35 -0.0517063 0.0 28.8187 28.8187
1.36 -0.136258 0.0 29.6233 29.6233
1.37 -0.390768 0.0 30.9038 30.9038
1.38 -0.790247 0.0 32.5202 32.5202
1.39 -1.29115 0.0 34.3002 34.3002
1.4 -1.83616 0.0 36.0532 36.0532
1.41 -2.36079 0.0 37.5918 37.5918
1.42 -2.80107 0.0 38.7521 38.7521
1.43 -3.10143 0.0 39.4084 39.4084
1.44 -3.22173 0.0 39.4907 39.4907
1.45 -3.14273 0.0 38.9847 38.9847
1.46 -2.86911 0.0 37.9391 37.9391
1.47 -2.42966 0.0 36.4567 36.4567
1.48 -1.87457 0.0 34.6836 34.6836
1.49 -1.26995 0.0 32.789 32.789
1.5 -0.690301 0.0 30.9553 30.9553
1.51 -0.209594 0.0 29.3506 29.3506
1.52 0.107812 0.0 28.1132 28.1132
1.53 0.215439 0.0 27.3366 27.3366
1.54 0.0910456 0.0 27.064 27.064
1.55 -0.259746 0.0 27.2787 27.2787
1.56 -0.803113 0.0 27.9121 27.9121
1.57 -1.48014 0.0 28.8511 28.8511
1.58 -2.2131 0.0 29.9531 29.9531
1.59 -2.91437 0.0 31.0604 31.0604
1.6 -3.49676 0.0 32.0228 32.0228
1.61 -3.88436 0.0 32.7154 32.7154
1.62 -4.02235 0.0 33.0514 33.0514
1.63 -3.88465 0.0 32.9927 32.9927
1.64 -3.47833 0.0 32.5573 32.5573
1.65 -2.84417 0.0 31.8152 31.8152
1.66 -2.05309 0.0 30.8801 30.8801
1.67 -1.19868 0.0 29.8977 29.8977
1.68 -0.386654 0.0 29.0277 29.0277
1.69 0.27775 0.0 28.4222 28.4222
1.7 0.702815 0.0 28.2132 28.2132
1.71 0.822402 0.0 28.4866 28.4866
1.72 0.605421 0.0 29.2816 29.2816
1.73 0.0614393 0.0 30.5746 30.5746
1.74 -0.758442 0.0 32.2874 32.2874
1.75 -1.76581 0.0 34.2878 34.2878
1.76 -2.84399 0.0 36.412 36.412
1.77 -3.86113 0.0 38.4721 38.4721
1.78 -4.68584 0.0 40.2858 40.2858
1.79 -5.20369 0.0 41.6937 41.6937
1.8 -5.33259 0.0 42.5766 42.5766
1.81 -5.03504 0.0 42.873 42.873
1.82 -4.3256 0.0 42.5876 42.5876
1.83 -3.27229 0.0 41.7923 41.7923
1.84 -1.99151 0.0 40.6185 40.6185
1.85 -0.636404 0.0 39.2474 39.2474
1.86 0.620024 0.0 37.887 37.887
1.87 1.60564 0.0 36.7524 36.7524
1.88 2.17126 0.0 36.0427 36.0427
1.89 2.21154 0.0 35.9125 35.9125
1.9 1.68195 0.0 36.458 36.458
1.91 0.609405 0.0 37.6986 37.6986
1.92 -0.905481 0.0 39.5765 39.5765
1.93 -2.69548 0.0 41.9535 41.9535
1.94 -4.54345 0.0 44.6245 44.6245
1.95 -6.20761 0.0 47.3326 47.3326
1.96 -7.45345 0.0 49.8004 49.8004
1.97 -8.08922 0.0 51.7462 51.7462
1.98 -8.00156 0.0 52.9206 52.9206
1.99 -7.18713 0.0 53.1291 53.1291
2 -5.77641 0.0 52.2514 52.2514
2.01 -4.0462 0.0 50.2572 50.2572
2.02 -2.4183 0.0 47.2123 47.2123
2.03 -1.4428 0.0 43.2738 43.2738
2.04 -1.76613 0.0 38.6761 38.6761
2.05 -4.08543 0.0 33.7134 33.7134
2.06 -9.09202 0.0 28.712 28.712
2.07 -17.4086 0.0 24.0016 24.0016
2.08 -29.5249 0.0 19.8859 19.8859
2.09 -45.7381 0.0 16.6151 16.6151
2.1 -66.1034 0.0 14.3644 14.3644
2.11 -90.3997 0.0 13.2207 13.2207
2.12 -118.115 0.0 13.1748 13.1748
2.13 -148.453 0.0 14.1216 14.1216
2.14 -180.364 0.0 15.8809 15.8809
2.15 -212.597 0.0 18.2044 18.2044
2.16 -243.771 0.0 20.8078 20.8078
2.17 -272.455 0.0 23.3982 23.3982
2.18 -297.267 0.0 25.6939 25.6939
2.19 -316.96 0.0 27.459 27.459
2.2 -330.513 0.0 28.5139 28.5139
2.21 -337.2 0.0 28.7601 28.7601
2.22 -336.645 0.0 28.1713 28.1713
2.23 -328.85 0.0 26.8083 26.8083
2.24 -314.197 0.0 24.7948 24.7948
2.25 -293.422 0.0 22.3092 22.3092
2.26 -267.569 0.0 19.5673 19.5673
2.27 -237.915 0.0 16.7911 16.7911
2.28 -205.885 0.0 14.1966 14.1966
2.29 -172.955 0.0 11.9702 11.9702
2.3 -140.56 0.0 10.2507 10.2507
2.31 -109.997 0.0 9.12679 9.12679
2.32 -82.3534 0.0 8.6264 8.6264
2.33 -58.4469 0.0 8.72488 8.72488
2.34 -38.7896 0.0 9.34662 9.34662
2.35 -23.5784 0.0 10.3824 10.3824
2.36 -12.7083 0.0 11.7033 11.7033
2.37 -5.80891 0.0 13.1709 13.1709
2.38 -2.29871 0.0 14.6597 14.6597
2.39 -1.45185 0.0 16.0599 16.0599
2.4 -2.47155 0.0 17.2935 17.2935
2.41 -4.56292 0.0 18.3129 18.3129
2.42 -6.99936 0.0 19.1014 19.1014
2.43 -9.17676 0.0 19.6688 19.6688
2.44 -10.6518 0.0 20.0438 20.0438
2.45 -11.162 0.0 20.263 20.263
2.46 -10.6263 0.0 20.3653 20.3653
2.47 -9.12893 0.0 20.3759 20.3759
2.48 -6.88769 0.0 20.3087 20.3087
2.49 -4.21209 0.0 20.1541 20.1541
2.5 -1.45566 0.0 19.8857 19.8857
2.51 1.03218 0.0 19.4588 19.4588
2.52 2.94971 0.0 18.8233 18.8233
2.53 4.07772 0.0 17.9243 17.9243
2.54 4.30242 0.0 16.7186 16.7186
2.55 3.62466 0.0 15.1803 15.1803
2.56 2.15529 0.0 13.3107 13.3107
2.57 0.0978228 0.0 11.1362 11.1362
2.58 -2.27902 0.0 8.72102 8.72102
2.59 -4.67534 0.0 6.15134 6.15134
2.6 -6.79661 0.0 3.53861 3.53861
2.61 -8.38855 0.0 1.00555 1.00555
2.62 -9.26634 0.0 -1.32566 -1.32566
2.63 -9.33509 0.0 -3.34691 -3.34691
2.64 -8.59939 0.0 -4.97061 -4.97061
2.65 -7.16112 0.0 -6.14488 -6.14488
2.66 -5.20596 0.0 -6.85804 -6.85804
2.67 -2.98033 0.0 -7.14267 -7.14267
2.68 -0.761479 0.0 -7.07052 -7.07052
2.69 1.17578 0.0 -6.74878 -6.74878
2.7 2.5918 0.0 -6.3108 -6.3108
2.71 3.31068 0.0 -5.89968 -5.89968
2.72 3.24127 0.0 -5.65827 -5.65827
2.73 2.38833 0.0 -5.71233 -5.71233
2.74 0.852422 0.0 -6.15942 -6.15942
2.75 -1.18144 0.0 -7.05956 -7.05956
2.76 -3.46528 0.0 -8.42772 -8.42772
2.77 -5.71725 0.0 -10.2337 -10.2337
2.78 -7.6553 0.0 -12.4057 -12.4057
2.79 -9.03128 0.0 -14.8367 -14.8367
2.8 -9.66182 0.0 -17.3962 -17.3962
2.81 -9.45195 0.0 -19.9411 -19.9411
2.82 -8.40858 0.0 -22.3334 -22.3334
2.83 -6.64176 0.0 -24.4482 -24.4482
2.84 -4.35285 0.0 -26.1881 -26.1881
2.85 -1.81031 0.0 -27.4897 -27.4897
2.86 0.68497 0.0 -28.329 -28.329
2.87 2.84166 0.0 -28.7177 -28.7177
2.88 4.42307 0.0 -28.7061 -28.7061
2.89 5.29077 0.0 -28.3668 -28.3668
2.9 5.44186 0.0 -27.7939 -27.7939
2.91 5.03544 0.0 -27.0844 -27.0844
2.92 4.40485 0.0 -26.3368 -26.3368
2.93 4.05291 0.0 -25.6309 -25.6309
2.94 4.62956 0.0 -25.0286 -25.0286
2.95 6.89231 0.0 -24.5703 -24.5703
2.96 11.6519 0.0 -24.2689 -24.2689
2.97 19.7071 0.0 -24.1171 -24.1171
2.98 31.7732 0.0 -24.0922 -24.0922
2.99 48.4108 0.0 -24.1618 -24.1618
3 69.9601 0.0 -24.2931 -24.2931
3.01 96.4872 0.0 -24.4632 -24.4632
3.02 127.747 0.0 -24.6605 -24.6605
3.03 163.17 0.0 -24.892 -24.892
3.04 201.865 0.0 -25.185 -25.185
3.05 242.656 0.0 -25.5819 -25.5819
3.06 284.134 0.0 -26.1415 -26.1415
3.07 324.73 0.0 -26.9225 -26.9225
3.08 362.805 0.0 -27.983 -27.983
3.09 396.747 0.0 -29.367 -29.367
3.1 425.067 0.0 -31.0948 -31.0948
3.11 446.493 0.0 -33.1616 -33.1616
3.12 460.049 0.0 -35.5251 -35.5251
3.13 465.12 0.0 -38.1121 -38.1121
3.14 461.487 0.0 -40.8186 -40.8186
3.15 449.34 0.0 -43.5177 -43.5177
3.16 429.267 0.0 -46.0674 -46.0674
3.17 402.214 0.0 -48.3233 -48.3233
3.18 369.421 0.0 -50.1526 -50.1526
3.19 332.342 0.0 -51.4418 -51.4418
3.2 292.557 0.0 -52.1142 -52.1142
3.21 251.674 0.0 -52.1322 -52.1322
3.22 211.233 0.0 -51.5029 -51.5029
3.23 172.622 0.0 -50.2787 -50.2787
3.24 137.005 0.0 -48.5542 -48.5542
3.25 105.274 0.0 -46.4565 -46.4565
3.26 78.0116 0.0 -44.1376 -44.1376
3.27 55.4929 0.0 -41.7579 -41.7579
3.28 37.6951 0.0 -39.4771 -39.4771
3.29 24.3348 0.0 -37.4418 -37.4418
3.3 14.919 0.0 -35.769 -35.769
3.31 8.80615 0.0 -34.5442 -34.5442
3.32 5.27303 0.0 -33.816 -33.816
3.33 3.58026 0.0 -33.5923 -33.5923
3.34 3.03197 0.0 -33.843 -33.843
3.35 3.02474 0.0 -34.5117 -34.5117
3.36 3.08276 0.0 -35.5138 -35.5138
3.37 2.87721 0.0 -36.7552 -36.7552
3.38 2.22976 0.0 -38.1368 -38.1368
3.39 1.10122 0.0 -39.5622 -39.5622
3.4 -0.431944 0.0 -40.9531 -40.9531
3.41 -2.21003 0.0 -42.244 -42.244
3.42 -4.02706 0.0 -43.3919 -43.3919
3.43 -5.66817 0.0 -44.3728 -44.3728
3.44 -6.94351 0.0 -45.1815 -45.1815
3.45 -7.71499 0.0 -45.827 -45.827
3.46 -7.91387 0.0 -46.3271 -46.3271
3.47 -7.54757 0.0 -46.7024 -46.7024
3.48 -6.69605 0.0 -46.973 -46.973
3.49 -5.49864 0.0 -47.1524 -47.1524
3.5 -4.13381 0.0 -47.2492 -47.2492
3.51 -2.79464 0.0 -47.2634 -47.2634
3.52 -1.66338 0.0 -47.1896 -47.1896
3.53 -0.888505 0.0 -47.0195 -47.0195
3.54 -0.567126 0.0 -46.7439 -46.7439
3.55 -0.735115 0.0 -46.3619 -46.3619
3.56 -1.36619 0.0 -45.8748 -45.8748
3.57 -2.38022 0.0 -45.2988 -45.2988
3.58 -3.65974 0.0 -44.6593 -44.6593
3.59 -5.07289 0.0 -43.9901 -43.9901
3.6 -6.49983 0.0 -43.3342 -43.3342
3.61 -7.85949 0.0 -42.7365 -42.7365
3.62 -9.13324 0.0 -42.2388 -42.2388
3.63 -10.3822 0.0 -41.8778 -41.8778
3.64 -11.7558 0.0 -41.6732 -41.6732
3.65 -13.4895 0.0 -41.6305 -41.6305
3.66 -15.8917 0.0 -41.7353 -41.7353
3.67 -19.32 0.0 -41.956 -41.956
3.68 -24.1486 0.0 -42.2424 -42.2424
3.69 -30.7299 0.0 -42.5341 -42.5341
3.7 -39.3539 0.0 -42.7661 -42.7661
3.71 -50.2095 0.0 -42.8775 -42.8775
3.72 -63.3505 0.0 -42.8175 -42.8175
3.73 -78.6723 0.0 -42.5537 -42.5537
3.74 -95.8997 0.0 -42.0783 -42.0783
3.75 -114.589 0.0 -41.4098 -41.4098
3.76 -134.145 0.0 -40.5985 -40.5985
3.77 -153.852 0.0 -39.7151 -39.7151
3.78 -172.912 0.0 -38.852 -38.852
3.79 -190.5 0.0 -38.1128 -38.1128
3.8 -205.816 0.0 -37.5994 -37.5994
3.81 -218.137 0.0 -37.4062 -37.4062
3.82 -226.872 0.0 -37.6034 -37.6034
3.83 -231.597 0.0 -38.2346 -38.2346
3.84 -232.09 0.0 -39.3015 -39.3015
3.85 -228.34 0.0 -40.7711 -40.7711
3.86 -220.547 0.0 -42.5693 -42.5693
3.87 -209.107 0.0 -44.5889 -44.5889
3.88 -194.583 0.0 -46.6958 -46.6958
3.89 -177.662 0.0 -48.7441 -48.7441
3.9 -159.107 0.0 -50.5857 -50.5857
3.91 -139.709 0.0 -52.084 -52.084
3.92 -120.233 0.0 -53.13 -53.13
3.93 -101.375 0.0 -53.6476 -53.6476
3.94 -83.7261 0.0 -53.6079 -53.6079
3.95 -67.7423 0.0 -53.0257 -53.0257
3.96 -53.7337 0.0 -51.9633 -51.9633
3.97 -41.8605 0.0 -50.5235 -50.5235
3.98 -32.1423 0.0 -48.8377 -48.8377
3.99 -24.4769 0.0 -47.0601 -47.0601
4 -18.6656 0.0 -45.3464 -45.3464
4.01 -14.4433 0.0 -43.8467 -43.8467
4.02 -11.5092 0.0 -42.6848 -42.6848
4.03 -9.55592 0.0 -41.9521 -41.9521
4.04 -8.29512 0.0 -41.7009 -41.7009
4.05 -7.47638 0.0 -41.9346 -41.9346
4.06 -6.90015 0.0 -42.6158 -42.6158
4.07 -6.42329 0.0 -43.6657 -43.6657
4.08 -5.9583 0.0 -44.9777 -44.9777
4.09 -5.46714 0.0 -46.4219 -46.4219
4.1 -4.95114 0.0 -47.8669 -47.8669
4.11 -4.43868 0.0 -49.1843 -49.1843
4.12 -3.97225 0.0 -50.2647 -50.2647
4.13 -3.59637 0.0 -51.0286 -51.0286
4.14 -3.3473 0.0 -51.4297 -51.4297
4.15 -3.24547 0.0 -51.4575 -51.4575
4.16 -3.29053 0.0 -51.1385 -51.1385
4.17 -3.4591 0.0 -50.5319 -50.5319
4.18 -3.7046 0.0 -49.7184 -49.7184
4.19 -3.95864 0.0 -48.7924 -48.7924
4.2 -4.1332 0.0 -47.8518 -47.8518
4.21 -4.12323 0.0 -46.9868 -46.9868
4.22 -3.80921 0.0 -46.2688 -46.2688
4.23 -3.05964 0.0 -45.7484 -45.7484
4.24 -1.73378 0.0 -45.4472 -45.4472
4.25 0.315062 0.0 -45.3581 -45.3581
4.26 3.23509 0.0 -45.4471 -45.4471
4.27 7.16983 0.0 -45.6588 -45.6588
4.28 12.2499 0.0 -45.9279 -45.9279
4.29 18.5828 0.0 -46.1788 -46.1788
4.3 26.2403 0.0 -46.3423 -46.3423
4.31 35.2453 0.0 -46.3593 -46.3593
4.32 45.5583 0.0 -46.1883 -46.1883
4.33 57.0655 0.0 -45.8105 -45.8105
4.34 69.5703 0.0 -45.2283 -45.2283
4.35 82.7887 0.0 -44.4707 -44.4707
4.36 96.3526 0.0 -43.5786 -43.5786
4.37 109.819 0.0 -42.6097 -42.6097
4.38 122.686 0.0 -41.6265 -41.6265
4.39 134.422 0.0 -40.6893 -40.6893
4.4 144.491 0.0 -39.8497 -39.8497
4.41 152.389 0.0 -39.1469 -39.1469
4.42 157.683 0.0 -38.6003 -38.6003
4.43 160.044 0.0 -38.2098 -38.2098
4.44 159.273 0.0 -37.9563 -37.9563
4.45 155.33 0.0 -37.8057 -37.8057
4.46 148.336 0.0 -37.7103 -37.7103
4.47 138.581 0.0 -37.6169 -37.6169
4.48 126.501 0.0 -37.4752 -37.4752
4.49 112.658 0.0 -37.2362 -37.2362
4.5 97.6989 0.0 -36.8669 -36.8669
4.51 82.311 0.0 -36.349 -36.349
4.52 67.1744 0.0 -35.6784 -35.6784
4.53 52.9118 0.0 -34.8708 -34.8708
4.54 40.0457 0.0 -33.9537 -33.9537
4.55 28.9627 0.0 -32.9697 -32.9697
4.56 19.8915 0.0 -31.9635 -31.9635
4.57 12.8939 0.0 -30.9829 -30.9829
4.58 7.87232 0.0 -30.0713 -30.0713
4.59 4.59077 0.0 -29.2638 -29.2638
4.6 2.70861 0.0 -28.5826 -28.5826
4.61 1.82267 0.0 -28.0377 -28.0377
4.62 1.51361 0.0 -27.6256 -27.6256
4.63 1.39121 0.0 -27.3312 -27.3312
4.64 1.13385 0.0 -27.1279 -27.1279
4.65 0.517421 0.0 -26.9894 -26.9894
4.66 -0.569523 0.0 -26.8835 -26.8835
4.67 -2.12643 0.0 -26.7856 -26.7856
4.68 -4.0574 0.0 -26.6756 -26.6756
4.69 -6.2022 0.0 -26.5428 -26.5428
4.7 -8.37839 0.0 -26.3876 -26.3876
4.71 -10.4297 0.0 -26.2173 -26.2173
4.72 -12.2752 0.0 -26.0488 -26.0488
4.73 -13.953 0.0 -25.901 -25.901
4.74 -15.6527 0.0 -25.7953 -25.7953
4.75 -17.7319 0.0 -25.7491 -25.7491
4.76 -20.7135 0.0 -25.7695 -25.7695
4.77 -25.261 0.0 -25.857 -25.857
4.78 -32.1351 0.0 -25.9999 -25.9999
4.79 -42.1314 0.0 -26.1766 -26.1766
4.8 -56.0061 0.0 -26.3549 -26.3549
4.81 -74.3957 0.0 -26.4953 -26.4953
4.82 -97.7376 0.0 -26.5594 -26.5594
4.83 -126.2 0.0 -26.5101 -26.5101
4.84 -159.628 0.0 -26.3201 -26.3201
4.85 -197.513 0.0 -25.9718 -25.9718
4.86 -238.99 0.0 -25.4664 -25.4664
4.87 -282.858 0.0 -24.8169 -24.8169
4.88 -327.64 0.0 -24.0617 -24.0617
4.89 -371.658 0.0 -23.2435 -23.2435
4.9 -413.129 0.0 -22.4249 -22.4249
4.91 -450.284 0.0 -21.6654 -21.6654
4.92 -481.473 0.0 -21.0299 -21.0299
4.93 -505.283 0.0 -20.5664 -20.5664
4.94 -520.624 0.0 -20.315 -20.315
4.95 -526.809 0.0 -20.2891 -20.2891
4.96 -523.593 0.0 -20.4823 -20.4823
4.97 -511.187 0.0 -20.8636 -20.8636
4.98 -490.243 0.0 -21.3725 -21.3725
4.99 -461.795 0.0 -21.9329 -21.9329
5 -427.195 0.0 -22.4484 -22.4484
5.01 -388.009 0.0 -22.8194 -22.8194
5.02 -345.917 0.0 -22.9463 -22.9463
5.03 -302.603 0.0 -22.7359 -22.7359
5.04 -259.655 0.0 -22.1181 -22.1181
5.05 -218.474 0.0 -21.0396 -21.0396
5.06 -180.211 0.0 -19.4858 -19.4858
5.07 -145.719 0.0 -17.4657 -17.4657
5.08 -115.539 0.0 -15.0271 -15.0271
5.09 -89.9035 0.0 -12.2375 -12.2375
5.1 -68.7687 0.0 -9.19828 -9.19828
5.11 -51.8584 0.0 -6.01859 -6.01859
5.12 -38.7214 0.0 -2.82063 -2.82063
5.13 -28.7925 0.0 0.281451 0.281451
5.14 -21.4515 0.0 3.17746 3.17746
5.15 -16.0742 0.0 5.78022 5.78022
5.16 -12.0715 0.0 8.02154 8.02154
5.17 -8.91363 0.0 9.86563 9.86563
5.18 -6.13942 0.0 11.3034 11.3034
5.19 -3.35215 0.0 12.3511 12.3511
5.2 -0.20429 0.0 13.0513 13.0513
5.21 3.62388 0.0 13.4641 13.4641
5.22 8.44728 0.0 13.6587 13.6587
5.23 14.5955 0.0 13.7125 13.7125
5.24 22.4246 0.0 13.6964 13.6964
5.25 32.3173 0.0 13.6767 13.6767
5.26 44.6713 0.0 13.7017 13.7017
5.27 59.8739 0.0 13.8061 13.8061
5.28 78.2661 0.0 14.0069 14.0069
5.29 100.099 0.0 14.3055 14.3055
5.3 125.49 0.0 14.6909 14.6909
5.31 154.375 0.0 15.1411 15.1411
5.32 186.477 0.0 15.632 15.632
5.33 221.284 0.0 16.1385 16.1385
5.34 258.041 0.0 16.6466 16.6466
5.35 295.773 0.0 17.1454 17.1454
5.36 333.31 0.0 17.6407 17.6407
5.37 369.353 0.0 18.146 18.146
5.38 402.535 0.0 18.6928 18.6928
5.39 431.508 0.0 19.3084 19.3084
5.4 455.023 0.0 20.0364 20.0364
5.41 472.016 0.0 20.912 20.912
5.42 481.681 0.0 21.9635 21.9635
5.43 483.523 0.0 23.2073 23.2073
5.44 477.4 0.0 24.6445 24.6445
5.45 463.532 0.0 26.2574 26.2574
5.46 442.491 0.0 28.0032 28.0032
5.47 415.164 0.0 29.8278 29.8278
5.48 382.697 0.0 31.655 31.655
5.49 346.419 0.0 33.3994 33.3994
5.5 307.759 0.0 34.9684 34.9684
5.51 268.159 0.0 36.2758 36.2758
5.52 228.991 0.0 37.2435 37.2435
5.53 191.475 0.0 37.8066 37.8066
5.54 156.63 0.0 37.9275 37.9275
5.55 125.219 0.0 37.5877 37.5877
5.56 97.7418 0.0 36.8062 36.8062
5.57 74.4241 0.0 35.6229 35.6229
5.58 55.2437 0.0 34.1083 34.1083
5.59 39.9637 0.0 32.3513 32.3513
5.6 28.1807 0.0 30.4593 30.4593
5.61 19.3795 0.0 28.5445 28.5445
5.62 12.9895 0.0 26.7215 26.7215
5.63 8.43685 0.0 25.0942 25.0942
5.64 5.19066 0.0 23.7553 23.7553
5.65 2.79689 0.0 22.7731 22.7731
5.66 0.900586 0.0 22.1944 22.1944
5.67 -0.745271 0.0 22.0343 22.0343
5.68 -2.28305 0.0 22.288 22.288
5.69 -3.764 0.0 22.92 22.92
5.7 -5.16929 0.0 23.8803 23.8803
5.71 -6.43518 0.0 25.1002 25.1002
5.72 -7.47911 0.0 26.5031 26.5031
5.73 -8.22347 0.0 28.0125 28.0125
5.74 -8.61464 0.0 29.5546 29.5546
5.75 -8.63559 0.0 31.0636 31.0636
5.76 -8.31114 0.0 32.4911 32.4911
5.77 -7.70609 0.0 33.8001 33.8001
5.78 -6.91718 0.0 34.9742 34.9742
5.79 -6.06051 0.0 36.0125 36.0125
5.8 -5.25638 0.0 36.9284 36.9284
5.81 -4.61396 0.0 37.744 37.744
5.82 -4.21766 0.0 38.4937 38.4937
5.83 -4.11705 0.0 39.211 39.211
5.84 -4.32151 0.0 39.9305 39.9305
5.85 -4.80014 0.0 40.6841 40.6841
5.86 -5.48674 0.0 41.4957 41.4957
5.87 -6.28912 0.0 42.3831 42.3831
5.88 -7.1015 0.0 43.3535 43.3535
5.89 -7.81828 0.0 44.4083 44.4083
5.9 -8.34745 0.0 45.5434 45.5434
5.91 -8.622 0.0 46.746 46.746
5.92 -8.60798 0.0 48.004 48.004
5.93 -8.30801 0.0 49.304 49.304
5.94 -7.76016 0.0 50.6332 50.6332
5.95 -7.03193 0.0 51.9769 51.9769
5.96 -6.21032 0.0 53.3273 53.3273
5.97 -5.38891 0.0 54.6759 54.6759
5.98 -4.65341 0.0 56.0164 56.0164
5.99 -4.06728 0.0 57.3393 57.3393
6 -3.65909 0.0 58.6381 58.6381
6.01 -3.41277 0.0 59.9008 59.9008
6.02 -3.26205 0.0 61.1141 61.1141
6.03 -3.08967 0.0 62.2607 62.2607
6.04 -2.73144 0.0 63.3224 63.3224
6.05 -1.98512 0.0 64.2791 64.2791
6.06 -0.623121 0.0 65.1121 65.1121
6.07 1.59178 0.0 65.8072 65.8072
6.08 4.88904 0.0 66.356 66.356
6.09 9.47266 0.0 66.7593 66.7593
6.1 15.5045 0.0 67.0275 67.0275
6.11 23.0899 0.0 67.1851 67.1851
6.12 32.266 0.0 67.264 67.264
6.13 42.9949 0.0 67.3101 67.3101
6.14 55.1598 0.0 67.3742 67.3742
6.15 68.5665 0.0 67.5125 67.5125
6.16 82.9484 0.0 67.7786 67.7786
6.17 97.9757 0.0 68.2233 68.2233
6.18 113.267 0.0 68.8819 68.8819
6.19 128.405 0.0 69.7804 69.7804
6.2 142.95 0.0 70.9243 70.9243
6.21 156.461 0.0 72.301 72.301
6.22 168.512 0.0 73.874 73.874
6.23 178.708 0.0 75.5967 75.5967
