# SrXgui configration #
[Experiment]
maskfile = mask.npy
integrationspace = qspace
wavelength = 0.1835957
xbeamcenter = 1025.151
ybeamcenter = 1026.238
distance = 208.261
rotationd = -69.563
tiltd = 0.635
tthstepd = 0.02
qstep = 0.02

[Beamline]
fliphorizontal = False
flipvertical = False
xdimension = 2048
ydimension = 2048
xpixelsize = 0.2
ypixelsize = 0.2

[Others]
uncertaintyenable = True
sacorrectionenable = True
polcorrectionenable = True
polcorrectf = 0.99
brightpixelmask = True
darkpixelmask = True
avgmask = True
cropedges = 10, 10, 10, 10

#### start data
0 0 0
0.02 0 0
0.04 0 0
0.06 1164.81 152.288
0.08 1685.91 183.212
0.1 1701.15 184.038
0.12 2081.64 203.582
0.14 1941.64 196.617
0.16 1793.57 188.972
0.18 3196.98 252.294
0.2 2548.88 225.275
0.22 3096.26 248.288
0.24 3245.41 254.198
0.26 2329.88 215.379
0.28 2863.98 238.793
0.3 2823.07 237.082
0.32 3017.4 245.106
0.34 6671.69 364.465
0.36 8817.73 419.002
0.38 9748.4 440.559
0.4 17686.7 593.419
0.42 18762.8 611.204
0.44 38630.3 877.004
0.46 31063.1 786.43
0.48 35328.8 838.69
0.5 47979.2 977.382
0.52 35784.6 844.084
0.54 45982.9 956.831
0.56 44278.3 938.93
0.58 49990.2 997.655
0.6 53263.7 1029.8
0.62 45208.9 948.745
0.64 54953.9 1046.01
0.66 54204.9 1038.86
0.68 53483.8 1031.93
0.7 60683.3 1099.19
0.72 56146.5 1057.3
0.74 61369.7 1105.39
0.76 63352.2 1123.1
0.78 62325.3 1113.96
0.8 69632.8 1177.45
0.82 64714.6 1135.11
0.84 67524.6 1159.49
0.86 69347.6 1175.04
0.88 68081.8 1164.27
0.9 68454.6 1167.45
0.92 68516.9 1167.98
0.94 68845.4 1170.78
0.96 69189 1173.7
0.98 67677.1 1160.8
1 68534.8 1168.13
1.02 68317.7 1166.28
1.04 67677.3 1160.81
1.06 67826.5 1162.08
1.08 67760.4 1161.52
1.1 67364 1158.11
1.12 66987.2 1154.87
1.14 67126 1156.07
1.16 66840.7 1153.6
1.18 66591.5 1151.45
1.2 66295.7 1148.89
1.22 66622.4 1151.72
1.24 66067.7 1146.92
1.26 65978.2 1146.14
1.28 65799.9 1144.59
1.3 65124 1138.7
1.32 65011.6 1137.72
1.34 64185.7 1130.46
1.36 63416.1 1123.66
1.38 63167.5 1121.47
1.4 61836.9 1109.59
1.42 61277.7 1104.56
1.44 59891.7 1091.99
1.46 59153.5 1085.25
1.48 58297.8 1077.37
1.5 57434.9 1069.37
1.52 57022.8 1065.52
1.54 55875 1054.74
1.56 54718.1 1043.76
1.58 54290.2 1039.68
1.6 53179 1028.97
1.62 52821.4 1025.52
1.64 52131.4 1018.8
1.66 51388 1011.5
1.68 51219.6 1009.84
1.7 50672.3 1004.45
1.72 50070.4 998.456
1.74 49890 996.646
1.76 49220.3 989.939
1.78 49198.9 989.728
1.8 48669.2 984.377
1.82 48586.4 983.553
1.84 48256.2 980.197
1.86 47769.8 975.243
1.88 47716 974.695
1.9 47346.3 970.915
1.92 46873.9 966.058
1.94 46410.2 961.266
1.96 46420.6 961.38
1.98 45763.2 954.544
2 45500.6 951.798
2.02 44811.5 944.569
2.04 44422.8 940.453
2.06 44168.7 937.767
2.08 44025.9 936.242
2.1 43816.3 934.019
2.12 43291.3 928.405
2.14 43265.6 928.132
2.16 42770.1 922.803
2.18 42755.3 922.64
2.2 42575.3 920.693
2.22 42477.8 919.639
2.24 42468.4 919.535
2.26 42316.9 917.901
2.28 42501.8 919.901
2.3 42684.2 921.871
2.32 42473 919.596
2.34 42736.1 922.436
2.36 42866.5 923.842
2.38 42776.8 922.873
2.4 43057.8 925.905
2.42 43220.1 927.642
2.44 43377.8 929.334
2.46 43667.2 932.425
2.48 43816 934.015
2.5 44384 940.042
2.52 44661.8 942.986
2.54 45135.3 947.975
2.56 45737.9 954.273
2.58 46285.5 959.974
2.6 47004.3 967.396
2.62 47686.6 974.397
2.64 48358.9 981.236
2.66 49364 991.385
2.68 50150.3 999.249
2.7 51154.1 1009.2
2.72 52064.9 1018.15
2.74 53049.4 1027.72
2.76 54284.7 1039.63
2.78 55381.7 1050.08
2.8 57081.4 1066.07
2.82 58941.7 1083.31
2.84 61280.2 1104.58
2.86 64868.4 1136.46
2.88 69507.6 1176.4
2.9 77078.7 1238.81
2.92 89872.4 1337.68
2.94 115664 1517.53
2.96 176623 1875.25
2.98 343987 2617.03
3 710551 3761.28
3.02 1.40027e+06 5280.12
3.04 2.32436e+06 6802.82
3.06 3.2431e+06 8035.59
3.08 3.71685e+06 8602.51
3.1 3.66217e+06 8539
3.12 2.99974e+06 7728.22
3.14 2.06721e+06 6415.48
3.16 1.13831e+06 4760.67
3.18 532492 3256.07
3.2 260128 2275.77
3.22 157426 1770.46
3.24 109665 1477.64
3.26 90013.1 1338.69
3.28 80427.7 1265.42
3.3 75466.8 1225.77
3.32 72802.9 1203.98
3.34 71571.2 1193.7
3.36 71907 1196.56
3.38 74325.6 1216.48
3.4 79921 1261.45
3.42 94157.3 1369.2
3.44 129783 1607.47
3.46 220811 2096.77
3.48 415669 2876.81
3.5 754425 3875.66
3.52 1.19461e+06 4876.99
3.54 1.59091e+06 5628.09
3.56 1.78358e+06 5959.16
3.58 1.72486e+06 5860.22
3.6 1.39492e+06 5270.02
3.62 942426 4331.73
3.64 527318 3240.21
3.66 276404 2345.93
3.68 148823 1721.36
3.7 91753.4 1351.6
3.72 68893 1171.19
3.74 58750.2 1081.5
3.76 53669.8 1033.67
3.78 50333.9 1001.1
3.8 48161.3 979.216
3.82 46577.8 962.974
3.84 45321.1 949.884
3.86 44313 939.307
3.88 43513.1 930.789
3.9 42770.1 922.785
3.92 42104.5 915.723
3.94 41497.9 908.908
3.96 41066.3 904.238
3.98 40557.9 898.586
4 40195.3 894.614
4.02 39845.6 890.676
4.04 39516.8 886.968
4.06 39173.6 883.132
4.08 38859.7 879.627
4.1 38545.5 876.049
4.12 38404.5 874.515
4.14 38197.3 872.058
4.16 38130.6 871.337
4.18 37985.6 869.696
4.2 37994.1 869.786
4.22 37924.3 868.926
4.24 37782.4 867.399
4.26 37801.1 867.528
4.28 37709.6 866.512
4.3 37522.7 864.348
4.32 37469.1 863.688
4.34 37410.1 863.014
4.36 37335.8 862.16
4.38 37349.1 862.35
4.4 37327.5 862.057
4.42 37429.5 863.248
4.44 37476.8 863.769
4.46 37556.3 864.774
4.48 37803.2 867.593
4.5 37927.5 868.938
4.52 38154.8 871.566
4.54 38399 874.394
4.56 38559.8 876.214
4.58 38885.1 879.837
4.6 39118 882.547
4.62 39488 886.579
4.64 39861.7 890.926
4.66 40209.9 894.818
4.68 40741.8 900.668
4.7 41138 904.927
4.72 41645.7 910.645
4.74 42317.2 917.917
4.76 43006.1 925.278
4.78 43992.1 935.937
4.8 45102.7 947.634
4.82 46501.8 962.213
4.84 48646.4 984.148
4.86 51629.4 1013.89
4.88 56924.9 1064.65
4.9 68002.7 1163.62
4.92 93791.6 1366.56
4.94 161342 1792.28
4.96 297150 2432.34
4.98 513009 3195.95
5 786421 3957
5.02 1.01447e+06 4494.25
5.04 1.12019e+06 4722.63
5.06 1.0529e+06 4578.57
5.08 836236 4080.39
5.1 549903 3308.88
5.12 322435 2533.72
5.14 176787 1876.11
5.16 105469 1449.15
5.18 73774.9 1211.99
5.2 61543.7 1106.92
5.22 56076.8 1056.76
5.24 53130.6 1028.5
5.26 51379 1011.47
5.28 50275.2 1000.42
5.3 49503.6 992.875
5.32 48951.5 987.204
5.34 48298.1 980.624
5.36 48026.3 977.912
5.38 47972.8 977.282
5.4 47635.2 973.873
5.42 47855.4 976.145
5.44 47824.5 975.804
5.46 47876.4 976.396
5.48 48041.2 978.025
5.5 48211.4 979.712
5.52 48505.1 982.712
5.54 48800.6 985.746
5.56 49167.7 989.435
5.58 49662.5 994.341
5.6 50190.2 999.674
5.62 50903.9 1006.75
5.64 51660.2 1014.19
5.66 52654.9 1023.93
5.68 53940.7 1036.3
5.7 55811.1 1054.17
5.72 58296.1 1077.35
5.74 62734.7 1117.59
5.76 71247.4 1190.99
5.78 90433.2 1341.88
5.8 136530 1648.71
5.82 242041 2195.25
5.84 426238 2913.14
5.86 694281 3717.97
5.88 967951 4390.01
5.9 1.15899e+06 4803.72
5.92 1.17993e+06 4846.93
5.94 1.03e+06 4528.52
5.96 743948 3848.65
5.98 465516 3044.4
6 263849 2291.99
6.02 157293 1769.7
6.04 104490 1442.32
6.06 92716 1358.66
6.08 109523 1476.67
6.1 150939 1733.58
6.12 221485 2099.95
6.14 297247 2432.73
6.16 356143 2662.89
6.18 366138 2699.98
6.2 328272 2556.53
6.22 252249 2241.06
6.24 173299 1857.52
6.26 111563 1490.38
6.28 76985.2 1238.04
6.3 59063.4 1084.38
6.32 51413.3 1011.76
6.34 48059.9 978.21
6.36 46161.7 958.669
6.38 44938.8 946.002
6.4 44036.1 936.361
6.42 43251.2 927.905
6.44 42598.9 920.993
6.46 42143.6 915.986
6.48 41643.5 910.495
6.5 41314 906.972
6.52 40874.5 902.205
6.54 40545.7 898.486
6.56 40298.2 895.651
6.58 39979.8 892.146
6.6 39800.9 890.133
6.62 39548.9 887.37
6.64 39256.3 884.091
6.66 39038.1 881.607
6.68 38830 879.286
6.7 38632.5 876.991
6.72 38459.4 875.146
6.74 38330.1 873.553
6.76 38176.1 871.877
6.78 38132.3 871.328
6.8 38064.8 870.534
6.82 38035 870.207
6.84 38028.5 870.165
6.86 38032.9 870.095
6.88 38151.4 871.579
6.9 38281.1 872.962
6.92 38477.6 875.353
6.94 38892.5 880.002
6.96 39476.4 886.466
6.98 40674.8 899.888
7 43410.2 929.672
7.02 49621 994.029
7.04 62220.3 1113.05
7.06 84312.1 1295.63
7.08 111260 1488.35
7.1 140383 1671.84
7.12 157847 1772.77
7.14 158735 1777.78
7.16 140956 1675.24
7.18 112364 1495.73
7.2 83778 1291.56
7.22 63499.9 1124.35
7.24 50577.8 1003.4
7.26 44476.8 941.116
7.28 42056.3 914.98
7.3 40975.9 903.347
7.32 40636.3 899.437
7.34 40562.8 898.702
7.36 40553.1 898.479
7.38 40729.7 900.555
7.4 40890.1 902.301
7.42 41123.8 904.839
7.44 41446 908.367
7.46 41785.8 912.134
7.48 42271.4 917.399
7.5 42801.6 923.1
7.52 43385.7 929.359
7.54 44134.8 937.442
7.56 45177.9 948.451
7.58 46358.9 960.738
7.6 48357 981.196
7.62 51864.3 1016.13
7.64 59346.8 1087.03
7.66 76142.6 1231.27
7.68 112126 1494.11
7.7 170358 1841.71
7.72 249963 2230.88
7.74 325914 2547.38
7.76 380493 2752.41
7.78 380176 2751.22
7.8 334416 2580.38
7.82 254805 2252.38
7.84 184559 1916.93
7.86 140126 1670.31
7.88 135526 1642.65
7.9 169762 1838.48
7.92 229039 2135.5
7.94 294904 2423.11
7.96 336588 2588.73
7.98 341811 2608.74
8 298525 2437.97
8.02 234329 2159.96
8.04 161883 1795.31
8.06 110037 1480.21
8.08 76574.8 1234.78
8.1 59331.6 1086.82
8.12 52028.2 1017.83
8.14 48397.9 981.603
8.16 46486.7 962.088
8.18 45452.6 951.318
8.2 44585.5 942.217
8.22 44088.4 936.848
8.24 43585.3 931.55
8.26 43191.7 927.369
8.28 42903 924.233
8.3 42549.7 920.369
8.32 42369.6 918.475
8.34 42184.4 916.505
8.36 42077.4 915.32
8.38 41925.8 913.729
8.4 41968.1 914.033
8.42 41921.7 913.541
8.44 41985 914.33
8.46 42151.6 916.169
8.48 42312.8 917.744
8.5 42551.8 920.46
8.52 42992.7 925.146
8.54 43534.3 931.019
8.56 44401.1 940.282
8.58 46249.7 959.583
8.6 50219.6 999.971
8.62 59497.4 1088.37
8.64 78748.3 1252.14
8.66 111321 1488.73
8.68 154555 1754.17
8.7 196695 1978.96
8.72 226336 2122.82
8.74 230001 2139.96
8.76 206054 2025.53
8.78 165071 1812.85
8.8 121198 1553.42
8.82 86421.4 1311.86
8.84 63425.2 1123.64
8.86 52077.2 1018.24
8.88 46812.5 965.47
8.9 44376.9 939.996
8.92 43330.8 928.855
8.94 42611.1 921.123
8.96 42258 917.255
8.98 42031.8 914.767
9 41823.6 912.531
9.02 41817.2 912.453
9.04 41946.1 913.866
9.06 42222.8 916.9
9.08 42842.6 923.6
9.1 44199.2 938.033
9.12 47080.1 968.225
9.14 53915.9 1036.17
9.16 68547.9 1168.21
9.18 94559.7 1372.08
9.2 133393 1629.7
9.22 173930 1860.92
9.24 210206 2045.76
9.26 225733 2120
9.28 214565 2066.87
9.3 182413 1905.73
9.32 138493 1660.57
9.34 102541 1428.86
9.36 72000.4 1197.3
9.38 55318.7 1049.46
9.4 46587.8 963.063
9.42 42458.5 919.493
9.44 40519.4 898.225
9.46 39460.3 886.363
9.48 38773.5 878.52
9.5 38236 872.563
9.52 37860.7 868.276
9.54 37543.4 864.545
9.56 37317.2 861.96
9.58 37144.3 860.016
9.6 36975.1 857.935
9.62 36874.1 856.828
9.64 36726.3 855.06
9.66 36621.7 853.912
9.68 36610.9 853.812
9.7 36505.7 852.576
9.72 36462.4 851.987
9.74 36494.4 852.344
9.76 36528 852.756
9.78 36532.1 852.994
9.8 36613.7 853.79
9.82 36657.9 854.289
9.84 36773.4 855.712
9.86 36948.3 857.714
9.88 37139.6 859.97
9.9 37463 863.589
9.92 37943.2 869.215
9.94 38798.2 878.906
9.96 40718 900.367
9.98 44613.8 942.537
10 51046.7 1008.13
10.02 60485 1097.39
10.04 71116.1 1189.94
10.06 79053.7 1254.54
10.08 83405.6 1288.63
10.1 81337.6 1272.6
10.12 74520.4 1218.16
10.14 64648.9 1134.52
10.16 55441 1050.57
10.18 48453.7 982.286
10.2 43969.1 935.548
10.22 41846.1 912.841
10.24 41026.5 903.827
10.26 40834 901.602
10.28 40954 903.08
10.3 41225.5 905.928
10.32 41600.6 910.095
10.34 42195.2 916.522
10.36 43029 925.568
10.38 44419.9 940.478
10.4 47280 970.184
10.42 52890.5 1026.22
10.44 64629.3 1134.36
10.46 86033.9 1308.76
10.48 113129 1500.82
10.5 145694 1703.2
10.52 173511 1858.62
10.54 186996 1929.57
10.56 184910 1918.74
10.58 167898 1828.33
10.6 150199 1729.27
10.62 133685 1631.46
10.64 127450 1593.01
10.66 128497 1599.52
10.68 131505 1618.05
10.7 129428 1605.31
10.72 119383 1541.75
10.74 103758 1437.27
10.76 84840.5 1299.7
10.78 68395.2 1166.91
10.8 56242.2 1058.26
10.82 48777.8 985.564
10.84 44892.2 945.325
10.86 42935.4 924.648
10.88 41859.5 912.818
10.9 41170.5 905.378
10.92 40716.6 900.393
10.94 40322.2 896.012
10.96 40087.5 893.441
10.98 39856.5 890.768
11 39662 888.606
11.02 39492.1 886.712
11.04 39435.1 886.136
11.06 39362.6 885.331
11.08 39477.6 886.61
11.1 39734.2 889.412
11.12 40409.7 896.977
11.14 42029.1 914.768
11.16 45324.9 949.914
11.18 51278.7 1010.41
11.2 60206.6 1094.91
11.22 70346.4 1183.48
11.24 79455.9 1257.72
11.26 85267.1 1303.01
11.28 85699.5 1306.19
11.3 81125.1 1270.93
11.32 72709.9 1203.2
11.34 62969.3 1119.71
11.36 54051.3 1037.39
11.38 46713.5 964.365
11.4 42453.7 919.451
11.42 40099.8 893.488
11.44 39018.8 881.398
11.46 38550.9 876.069
11.48 38399.4 874.462
11.5 38427.5 874.678
11.52 38720.2 878.067
11.54 39493.8 886.763
11.56 41155 905.2
11.58 44559.5 941.923
11.6 50558.3 1003.3
11.62 58605.9 1080.28
11.64 67625.4 1160.36
11.66 75072 1222.5
11.68 79792.2 1260.46
11.7 81303.6 1272.35
11.72 80236.4 1263.9
11.74 79173.4 1255.52
11.76 78415.6 1249.5
11.78 78566 1250.75
11.8 78551.4 1250.62
11.82 77660.8 1243.47
11.84 74507.7 1217.96
11.86 68601.1 1168.72
11.88 61639.4 1107.82
11.9 53520.2 1032.26
11.92 46850.2 965.723
11.94 42182.2 916.425
11.96 39196.4 883.502
11.98 37705.1 866.44
12 36946.6 857.66
12.02 36537.6 852.932
12.04 36269.4 849.747
12.06 36052.1 847.313
12.08 35906.4 845.467
12.1 35789.6 844.14
12.12 35711.1 843.238
12.14 35677.6 842.797
12.16 35690.3 842.963
12.18 35725.4 843.432
12.2 35911.4 845.638
12.22 36361.6 850.866
12.24 37264 861.335
12.26 38760.1 878.484
12.28 40873.3 902.101
12.3 42907 924.343
12.32 44646.4 942.753
12.34 45474.7 951.549
12.36 45451.4 951.316
12.38 44524.8 941.497
12.4 43053.4 925.802
12.42 41206.6 905.823
12.44 39371.8 885.291
12.46 38092.1 870.936
12.48 37389.5 862.825
12.5 37163.7 860.191
12.52 37282 861.615
12.54 37634.1 865.632
12.56 38347.8 873.702
12.58 39824.7 890.469
12.6 42494.3 919.881
12.62 47564.8 973.138
12.64 55227.8 1048.62
12.66 65328.8 1140.43
12.68 75023.5 1222.2
12.7 82944 1285.05
12.72 88113 1324.51
12.74 89399.5 1334.14
12.76 88662.6 1328.64
12.78 85705.9 1306.33
12.8 81186.7 1271.38
12.82 76076.8 1230.75
12.84 70807.1 1187.27
12.86 66035.1 1146.65
12.88 61801.7 1109.3
12.9 57304.5 1068.17
12.92 52379.9 1021.19
12.94 47526.2 972.834
12.96 43703.9 932.818
12.98 40975.4 903.2
13 39400.8 885.705
13.02 38599.4 876.618
13.04 38187 871.976
13.06 38022.7 870.054
13.08 37954.4 869.321
13.1 37921.2 868.948
13.12 38009 869.925
13.14 38184.3 871.928
13.16 38574.1 876.413
13.18 39336.6 884.994
13.2 41013.2 903.59
13.22 44183.2 937.991
13.24 49190.1 989.618
13.26 56368.2 1059.44
13.28 63863.4 1127.61
13.3 69854 1179.32
13.32 73588.9 1210.48
13.34 74378.3 1216.86
13.36 72932.3 1205.02
13.38 68713.3 1169.7
13.4 62893.6 1119.01
13.42 55803.3 1054.02
13.44 49473.3 992.554
13.46 44705.3 943.406
13.48 41935.4 913.76
13.5 40669 899.709
13.52 40644.9 899.684
13.54 41741.3 911.605
13.56 44256.9 938.838
13.58 49252.1 990.28
13.6 56846 1063.79
13.62 65845.4 1144.98
13.64 74657.9 1219.22
13.66 80076.9 1262.65
13.68 83290.7 1287.71
13.7 82552.3 1282.09
13.72 79828.9 1260.7
13.74 74006.6 1213.91
13.76 65726.3 1143.91
13.78 56883.8 1064.26
13.8 49027 987.946
13.82 43376.7 929.356
13.84 39797.6 890.168
13.86 37927.9 869.077
13.88 36889.5 857.033
13.9 36298.4 850.217
13.92 35865.4 844.979
13.94 35569.4 841.475
13.96 35296.1 838.326
13.98 35071.6 835.708
14 34931.3 833.895
14.02 34790.7 832.346
14.04 34616.9 830.23
14.06 34569.6 829.535
14.08 34497.8 828.784
14.1 34449.6 828.233
14.12 34555.6 829.397
14.14 34814.1 832.626
14.16 35135.1 836.441
14.18 35626.6 842.205
14.2 36118.6 847.98
14.22 36401.9 851.366
14.24 36725.2 855.175
14.26 36663.4 854.461
14.28 36593.5 853.483
14.3 36399.5 851.304
14.32 35994.8 846.608
14.34 35545.3 841.176
14.36 35136.4 836.457
14.38 34867.6 833.207
14.4 34724.7 831.456
14.42 34842.6 832.921
14.44 35304.3 838.449
14.46 36215.1 849.056
14.48 37673.6 866.196
14.5 39650.9 888.461
14.52 42029.1 914.755
14.54 44532.2 941.585
14.56 46724.9 964.511
14.58 49191.9 989.713
14.6 52437.2 1021.77
14.62 55668.9 1052.81
14.64 58225.3 1076.64
14.66 59028.8 1084.13
14.68 58222.7 1076.64
14.7 56688.9 1062.39
14.72 54892.9 1045.37
14.74 52577.6 1023.24
14.76 49426.6 991.998
14.78 45809.7 955.019
14.8 42057.7 915.069
14.82 39103.3 882.377
14.84 36948.6 857.681
14.86 35788.5 844.161
14.88 35220.2 837.398
14.9 34940.1 834.073
14.92 34864.3 833.108
14.94 34943.9 834.135
14.96 35216.6 837.338
14.98 35921 845.765
15 37101.5 859.494
15.02 38947.4 880.591
15.04 41161.8 905.239
15.06 43218.4 927.648
15.08 44800.7 944.465
15.1 45690.3 953.785
15.12 45972.4 956.729
15.14 45871.7 955.576
15.16 45287.5 949.558
15.18 44114 937.296
15.2 42328.2 917.961
15.22 40472.6 897.636
15.24 38670.3 877.516
15.26 37582.6 865.016
15.28 37450.1 863.51
15.3 38283.7 873.052
15.32 40145.2 894.039
15.34 42957.3 924.791
15.36 46304.1 960.166
15.38 49177.2 989.614
15.4 51021.8 1007.81
15.42 52466.5 1022.11
15.44 53764.2 1034.56
15.46 54743 1043.97
15.48 54879.7 1045.35
15.5 53540.3 1032.45
15.52 50936.6 1007.06
15.54 47903.4 976.65
15.56 45296 949.592
15.58 43069.5 925.988
15.6 41127 904.909
15.62 39420.1 886.015
15.64 37803.2 867.567
15.66 36540.6 852.868
15.68 35575.3 841.61
15.7 34972.4 834.525
15.72 34665 830.628
15.74 34515.4 828.986
15.76 34522.1 829.023
15.78 34631.3 830.425
15.8 34991.5 834.692
15.82 35620.7 842.083
15.84 36460.5 852.068
15.86 37469.6 863.736
15.88 38268.4 872.8
15.9 38852.8 879.599
15.92 39045 881.65
15.94 39158.2 882.962
15.96 39201 883.385
15.98 39068.1 882.027
16 38677 877.52
16.02 38019.4 870.058
16.04 37294.8 861.67
16.06 36843.6 856.453
16.08 36931.4 857.529
16.1 37821.2 867.878
16.12 39709.7 889.069
16.14 42223.9 916.871
16.16 45046.6 947.123
16.18 47544.7 972.902
16.2 49504.6 992.769
16.22 51186.2 1009.51
16.24 52889.6 1026.15
16.26 54407.5 1040.85
16.28 55006.9 1046.55
16.3 54230 1039.07
16.32 52132 1018.69
16.34 49499.2 992.847
16.36 46949.1 966.817
16.38 44646.8 942.826
16.4 42484.8 919.724
16.42 40244.3 895.164
16.44 38097 870.94
16.46 36310.7 850.291
16.48 34985.3 834.588
16.5 34083.1 823.712
16.52 33574.5 817.648
16.54 33341.9 814.585
16.56 33321.6 814.591
16.58 33520.3 817.001
16.6 33980.5 822.55
16.62 34542.4 829.345
16.64 35158.9 836.575
16.66 35536 841.167
16.68 35752.5 843.706
16.7 35727.4 843.348
16.72 35696.4 843.134
16.74 35710.1 843.139
16.76 35592.1 841.829
16.78 35334.3 838.768
16.8 34857.9 833.187
16.82 34292.2 826.266
16.84 33889.6 821.41
16.86 33955.4 822.249
16.88 34447 828.293
16.9 35305.3 838.368
16.92 36147.2 848.314
16.94 36896.3 857.086
16.96 37281.6 861.511
16.98 37281.4 861.608
17 37254.6 861.283
17.02 37291.1 861.649
17.04 37178.6 860.378
17.06 36676.1 854.429
17.08 35842.8 844.769
17.1 34735.9 831.689
17.12 33555.1 817.447
17.14 32504.2 804.367
17.16 31766.9 795.293
17.18 31314.3 789.637
17.2 31056.8 786.32
17.22 30904.4 784.398
17.24 30830 783.535
17.26 30843.5 783.636
17.28 30865.8 783.903
17.3 31020.6 785.978
17.32 31366.7 790.262
17.34 31764.4 795.171
17.36 32239.2 801.193
17.38 32722.3 807.176
17.4 33068.5 811.476
17.42 33252.5 813.716
17.44 33332.8 814.551
17.46 33405 815.523
17.48 33507.2 816.815
17.5 33641.7 818.445
17.52 33668.3 818.752
17.54 33630.9 818.336
17.56 33616.2 818.116
17.58 33883 821.262
17.6 34427.5 828.055
17.62 35421 839.748
17.64 36633.9 854.002
17.66 37703.3 866.337
17.68 38540.2 876.101
17.7 39160.6 882.933
17.72 39703.7 889.135
17.74 40209.6 894.73
17.76 40605.1 899.092
17.78 40666.6 899.832
17.8 40253.6 895.289
17.82 39321.1 884.745
17.84 38031.5 870.293
17.86 36791.9 855.801
17.88 35625.6 842.238
17.9 34606.9 830.076
17.92 33730.1 819.514
17.94 33020.1 810.837
17.96 32510.2 804.534
17.98 32259.8 801.427
18 32274.6 801.559
18.02 32681.2 806.672
18.04 33382.1 815.219
18.06 34235.1 825.634
18.08 35145.2 836.461
18.1 35931.5 845.765
18.12 36165.8 848.6
18.14 36216.5 849.251
18.16 36269.3 849.712
18.18 36377.5 851.048
18.2 36552.9 853.025
18.22 36625.7 854.047
18.24 36583.4 853.42
18.26 36215.5 849.137
18.28 35745.4 843.591
18.3 35441.8 839.994
18.32 35423.8 839.83
18.34 35648.9 842.513
18.36 36032.5 847.06
18.38 36224.5 849.113
18.4 36522.2 852.769
18.42 36698.1 854.722
18.44 36917.8 857.477
18.46 37166.6 860.128
18.48 37127.2 859.92
18.5 36884.4 856.771
18.52 36281.2 850.019
18.54 35386 839.426
18.56 34394.5 827.509
18.58 33423.7 815.697
18.6 32511.9 804.56
